Frequency (Hz),PSD (dBfs)
78000000.0,-80.78177
78009765.625,-81.04295
78019531.25,-81.10897
78029296.875,-81.33731
78039062.5,-81.27443
78048828.125,-81.150406
78058593.75,-81.14052
78068359.375,-81.14729
78078125.0,-81.19224
78087890.625,-81.03989
78097656.25,-81.05545
78107421.875,-81.09447
78117187.5,-81.26705
78126953.125,-81.2624
78136718.75,-81.22908
78146484.375,-81.10838
78156250.0,-81.06865
78166015.625,-81.30252
78175781.25,-81.377655
78185546.875,-81.29723
78195312.5,-81.126434
78205078.125,-81.15882
78214843.75,-81.02719
78224609.375,-81.11268
78234375.0,-81.24843
78244140.625,-81.350945
78253906.25,-81.20476
78263671.875,-81.19903
78273437.5,-81.05663
78283203.125,-80.997734
78292968.75,-81.050964
78302734.375,-81.16185
78312500.0,-81.16863
78322265.625,-81.11736
78332031.25,-81.082115
78341796.875,-81.147415
78351562.5,-81.034225
78361328.125,-81.14189
78371093.75,-81.02501
78380859.375,-81.180275
78390625.0,-81.28137
78400390.625,-81.24373
78410156.25,-81.071
78419921.875,-81.22179
78429687.5,-81.20398
78439453.125,-81.30345
78449218.75,-81.279465
78458984.375,-81.28455
78468750.0,-81.22979
78478515.625,-80.996666
78488281.25,-81.018234
78498046.875,-80.99237
78507812.5,-80.93861
78517578.125,-81.14211
78527343.75,-81.047554
78537109.375,-80.989334
78546875.0,-81.043
78556640.625,-81.1304
78566406.25,-81.1926
78576171.875,-81.1734
78585937.5,-81.35864
78595703.125,-81.35804
78605468.75,-81.346085
78615234.375,-81.073944
78625000.0,-81.18394
78634765.625,-81.141556
78644531.25,-81.15489
78654296.875,-81.13038
78664062.5,-81.17268
78673828.125,-81.36993
78683593.75,-81.33125
78693359.375,-81.236305
78703125.0,-81.11217
78712890.625,-81.11579
78722656.25,-81.25885
78732421.875,-81.186005
78742187.5,-81.018326
78751953.125,-81.03549
78761718.75,-81.16123
78771484.375,-81.10602
78781250.0,-80.96854
78791015.625,-81.041115
78800781.25,-81.123
78810546.875,-80.98488
78820312.5,-81.01521
78830078.125,-81.24859
78839843.75,-81.24801
78849609.375,-81.316444
78859375.0,-81.39054
78869140.625,-81.121056
78878906.25,-81.14505
78888671.875,-81.25075
78898437.5,-81.13292
78908203.125,-81.14404
78917968.75,-81.168144
78927734.375,-81.27855
78937500.0,-81.17168
78947265.625,-81.21202
78957031.25,-81.30462
78966796.875,-81.09742
78976562.5,-81.06999
78986328.125,-81.31454
78996093.75,-81.222466
79005859.375,-81.10203
79015625.0,-81.0159
79025390.625,-81.14952
79035156.25,-81.28136
79044921.875,-81.161385
79054687.5,-81.295654
79064453.125,-81.46315
79074218.75,-81.26582
79083984.375,-80.971985
79093750.0,-81.13618
79103515.625,-81.25648
79113281.25,-81.1734
79123046.875,-81.16553
79132812.5,-81.1037
79142578.125,-81.139755
79152343.75,-81.21336
79162109.375,-81.20734
79171875.0,-81.312706
79181640.625,-81.28394
79191406.25,-81.20511
79201171.875,-81.19312
79210937.5,-81.12027
79220703.125,-81.2169
79230468.75,-81.15764
79240234.375,-81.23215
79250000.0,-81.31588
79259765.625,-81.2239
79269531.25,-81.168335
79279296.875,-81.26538
79289062.5,-81.195595
79298828.125,-81.1491
79308593.75,-81.09593
79318359.375,-80.96315
79328125.0,-81.21034
79337890.625,-81.183334
79347656.25,-81.09382
79357421.875,-81.18562
79367187.5,-81.088196
79376953.125,-81.032906
79386718.75,-81.01268
79396484.375,-80.95409
79406250.0,-81.09237
79416015.625,-81.2593
79425781.25,-81.33805
79435546.875,-81.235
79445312.5,-81.07439
79455078.125,-81.19891
79464843.75,-81.08186
79474609.375,-81.19769
79484375.0,-81.236534
79494140.625,-81.43938
79503906.25,-81.40041
79513671.875,-81.20849
79523437.5,-81.077354
79533203.125,-81.1132
79542968.75,-81.21741
79552734.375,-81.267845
79562500.0,-81.08876
79572265.625,-81.14692
79582031.25,-81.23023
79591796.875,-81.14571
79601562.5,-81.25283
79611328.125,-81.33788
79621093.75,-81.22427
79630859.375,-81.29527
79640625.0,-81.12114
79650390.625,-80.97367
79660156.25,-81.09708
79669921.875,-81.03748
79679687.5,-81.05733
79689453.125,-80.60298
79699218.75,-80.131645
79708984.375,-80.60273
79718750.0,-81.04514
79728515.625,-81.24304
79738281.25,-81.28084
79748046.875,-81.1966
79757812.5,-81.23542
79767578.125,-81.15765
79777343.75,-81.24245
79787109.375,-81.275215
79796875.0,-81.25999
79806640.625,-81.109604
79816406.25,-81.16131
79826171.875,-81.300705
79835937.5,-81.14215
79845703.125,-81.21583
79855468.75,-81.33807
79865234.375,-81.23685
79875000.0,-81.17092
79884765.625,-81.16594
79894531.25,-81.16921
79904296.875,-81.05946
79914062.5,-80.948425
79923828.125,-81.13915
79933593.75,-81.46241
79943359.375,-81.196045
79953125.0,-81.10482
79962890.625,-81.22327
79972656.25,-81.237366
79982421.875,-81.12933
79992187.5,-77.740685
80001953.125,-75.425354
80011718.75,-79.763016
80021484.375,-81.28491
80031250.0,-81.25386
80041015.625,-81.17645
80050781.25,-81.17283
80060546.875,-81.101494
80070312.5,-81.03311
80080078.125,-81.17224
80089843.75,-81.20685
80099609.375,-81.093155
80109375.0,-81.10167
80119140.625,-81.1575
80128906.25,-81.27747
80138671.875,-81.14898
80148437.5,-81.0592
80158203.125,-81.17096
80167968.75,-81.04374
80177734.375,-80.98785
80187500.0,-81.239136
80197265.625,-81.27445
80207031.25,-81.20213
80216796.875,-81.292175
80226562.5,-81.23527
80236328.125,-81.23004
80246093.75,-81.21175
80255859.375,-81.01406
80265625.0,-80.96742
80275390.625,-81.13033
80285156.25,-81.04292
80294921.875,-81.07613
80304687.5,-81.08452
80314453.125,-80.91053
80324218.75,-81.005745
80333984.375,-81.22674
80343750.0,-81.10852
80353515.625,-81.1423
80363281.25,-81.25584
80373046.875,-81.27632
80382812.5,-81.17016
80392578.125,-81.14967
80402343.75,-81.080864
80412109.375,-81.06838
80421875.0,-81.11106
80431640.625,-81.11395
80441406.25,-81.086
80451171.875,-81.18222
80460937.5,-81.11447
80470703.125,-81.04623
80480468.75,-81.05667
80490234.375,-80.99118
80500000.0,-81.10007
80509765.625,-81.179054
80519531.25,-81.14288
80529296.875,-81.35739
80539062.5,-81.22436
80548828.125,-81.20571
80558593.75,-81.112
80568359.375,-81.06369
80578125.0,-81.26686
80587890.625,-81.20614
80597656.25,-81.00617
80607421.875,-81.06633
80617187.5,-81.244064
80626953.125,-81.11449
80636718.75,-81.157715
80646484.375,-81.11261
80656250.0,-81.082306
80666015.625,-81.08399
80675781.25,-81.20826
80685546.875,-81.156425
80695312.5,-80.99438
80705078.125,-81.07169
80714843.75,-81.19499
80724609.375,-81.47713
80734375.0,-81.31575
80744140.625,-81.32781
80753906.25,-81.28563
80763671.875,-81.32687
80773437.5,-81.217606
80783203.125,-81.08333
80792968.75,-81.091576
80802734.375,-81.229515
80812500.0,-81.196655
80822265.625,-81.140045
80832031.25,-81.21237
80841796.875,-81.329735
80851562.5,-81.27244
80861328.125,-81.25006
80871093.75,-81.00572
80880859.375,-80.85888
80890625.0,-80.83847
80900390.625,-80.96752
80910156.25,-81.24869
80919921.875,-81.2263
80929687.5,-81.24643
80939453.125,-81.25371
80949218.75,-81.19093
80958984.375,-81.30912
80968750.0,-81.33584
80978515.625,-81.40538
80988281.25,-81.31199
80998046.875,-81.2621
81007812.5,-81.13929
81017578.125,-81.2292
81027343.75,-81.35431
81037109.375,-81.16398
81046875.0,-81.17621
81056640.625,-81.2379
81066406.25,-81.2361
81076171.875,-81.15961
81085937.5,-81.21936
81095703.125,-81.16975
81105468.75,-81.293175
81115234.375,-81.274605
81125000.0,-81.2092
81134765.625,-81.23379
81144531.25,-81.20204
81154296.875,-81.42304
81164062.5,-81.28589
81173828.125,-81.11177
81183593.75,-81.125404
81193359.375,-81.12885
81203125.0,-81.166115
81212890.625,-81.362976
81222656.25,-81.23042
81232421.875,-81.168205
81242187.5,-81.13022
81251953.125,-81.25195
81261718.75,-81.19887
81271484.375,-81.1889
81281250.0,-81.32808
81291015.625,-81.35925
81300781.25,-81.28799
81310546.875,-81.25426
81320312.5,-81.32926
81330078.125,-81.32564
81339843.75,-81.32217
81349609.375,-81.414185
81359375.0,-81.379814
81369140.625,-81.218254
81378906.25,-81.33725
81388671.875,-81.293945
81398437.5,-81.25968
81408203.125,-81.10492
81417968.75,-81.19444
81427734.375,-81.214325
81437500.0,-81.129135
81447265.625,-81.31362
81457031.25,-81.32172
81466796.875,-81.25493
81476562.5,-81.34431
81486328.125,-81.31474
81496093.75,-81.30241
81505859.375,-81.19999
81515625.0,-81.082855
81525390.625,-81.15662
81535156.25,-81.19035
81544921.875,-81.23033
81554687.5,-81.21105
81564453.125,-81.04896
81574218.75,-81.26838
81583984.375,-81.25046
81593750.0,-81.266815
81603515.625,-81.4093
81613281.25,-81.55921
81623046.875,-81.37435
81632812.5,-81.21215
81642578.125,-81.16387
81652343.75,-81.142914
81662109.375,-81.01062
81671875.0,-81.11517
81681640.625,-81.24446
81691406.25,-81.14871
81701171.875,-80.94472
81710937.5,-80.95994
81720703.125,-81.22062
81730468.75,-81.28076
81740234.375,-81.22054
81750000.0,-81.05888
81759765.625,-81.138596
81769531.25,-81.05441
81779296.875,-81.11793
81789062.5,-81.27124
81798828.125,-81.289986
81808593.75,-81.21743
81818359.375,-81.07716
81828125.0,-81.14058
81837890.625,-81.279236
81847656.25,-81.248405
81857421.875,-81.34495
81867187.5,-81.323746
81876953.125,-81.145515
81886718.75,-81.18745
81896484.375,-81.10386
81906250.0,-81.02194
81916015.625,-81.10968
81925781.25,-81.263954
81935546.875,-81.40558
81945312.5,-81.377335
81955078.125,-81.26298
81964843.75,-81.26886
81974609.375,-81.35509
81984375.0,-81.2683
81994140.625,-81.25786
82003906.25,-81.29866
82013671.875,-81.40401
82023437.5,-81.363205
82033203.125,-81.344154
82042968.75,-81.342964
82052734.375,-81.378105
82062500.0,-81.306465
82072265.625,-81.195206
82082031.25,-81.41036
82091796.875,-81.434235
82101562.5,-81.23984
82111328.125,-81.207344
82121093.75,-81.25047
82130859.375,-81.153824
82140625.0,-81.21314
82150390.625,-81.26854
82160156.25,-81.30982
82169921.875,-81.16817
82179687.5,-81.18778
82189453.125,-81.199844
82199218.75,-81.25409
82208984.375,-81.454124
82218750.0,-81.449936
82228515.625,-81.38051
82238281.25,-81.264565
82248046.875,-81.25998
82257812.5,-81.3313
82267578.125,-81.22265
82277343.75,-81.26146
82287109.375,-81.27091
82296875.0,-81.341545
82306640.625,-81.50755
82316406.25,-81.24028
82326171.875,-81.20065
82335937.5,-81.260345
82345703.125,-81.130745
82355468.75,-81.194756
82365234.375,-81.27716
82375000.0,-81.48193
82384765.625,-81.39709
82394531.25,-81.30844
82404296.875,-81.25693
82414062.5,-81.26827
82423828.125,-81.29759
82433593.75,-81.45962
82443359.375,-81.24474
82453125.0,-81.071014
82462890.625,-80.99656
82472656.25,-81.12354
82482421.875,-81.16498
82492187.5,-81.20734
82501953.125,-81.26408
82511718.75,-81.209366
82521484.375,-81.38824
82531250.0,-81.38714
82541015.625,-81.25663
82550781.25,-81.441666
82560546.875,-81.27347
82570312.5,-81.21334
82580078.125,-81.21759
82589843.75,-81.204636
82599609.375,-81.29796
82609375.0,-81.4263
82619140.625,-81.39381
82628906.25,-81.30462
82638671.875,-81.24648
82648437.5,-81.10218
82658203.125,-81.16135
82667968.75,-81.34118
82677734.375,-81.33996
82687500.0,-81.25142
82697265.625,-81.29422
82707031.25,-81.24376
82716796.875,-81.179085
82726562.5,-81.24198
82736328.125,-81.33541
82746093.75,-81.37851
82755859.375,-81.40003
82765625.0,-81.31263
82775390.625,-81.19792
82785156.25,-81.269104
82794921.875,-81.25197
82804687.5,-81.24397
82814453.125,-81.04575
82824218.75,-81.0065
82833984.375,-81.23428
82843750.0,-81.155426
82853515.625,-81.16357
82863281.25,-81.18923
82873046.875,-81.29501
82882812.5,-81.1344
82892578.125,-81.13296
82902343.75,-81.17444
82912109.375,-81.25645
82921875.0,-81.43355
82931640.625,-81.43669
82941406.25,-81.23565
82951171.875,-81.30187
82960937.5,-81.28623
82970703.125,-81.26266
82980468.75,-81.22071
82990234.375,-81.18852
83000000.0,-81.27203
83009765.625,-81.309975
83019531.25,-81.306465
83029296.875,-81.27112
83039062.5,-81.1974
83048828.125,-81.14056
83058593.75,-81.33575
83068359.375,-81.41277
83078125.0,-81.19299
83087890.625,-81.11638
83097656.25,-81.34754
83107421.875,-81.38879
83117187.5,-81.42555
83126953.125,-81.54158
83136718.75,-81.483795
83146484.375,-81.26184
83156250.0,-81.22937
83166015.625,-81.33902
83175781.25,-81.25098
83185546.875,-81.297295
83195312.5,-81.34988
83205078.125,-81.27928
83214843.75,-81.19927
83224609.375,-81.23722
83234375.0,-81.21909
83244140.625,-81.292656
83253906.25,-81.18427
83263671.875,-81.115486
83273437.5,-81.16573
83283203.125,-81.21542
83292968.75,-81.28181
83302734.375,-81.40502
83312500.0,-81.35344
83322265.625,-81.25928
83332031.25,-81.33528
83341796.875,-81.23187
83351562.5,-81.194916
83361328.125,-81.162384
83371093.75,-81.14089
83380859.375,-81.10382
83390625.0,-81.24813
83400390.625,-81.29909
83410156.25,-81.180954
83419921.875,-81.45089
83429687.5,-81.347336
83439453.125,-81.29501
83449218.75,-81.33522
83458984.375,-81.173546
83468750.0,-81.17333
83478515.625,-81.237366
83488281.25,-81.290726
83498046.875,-81.36848
83507812.5,-81.21538
83517578.125,-81.23544
83527343.75,-81.36623
83537109.375,-81.27346
83546875.0,-81.278984
83556640.625,-81.30569
83566406.25,-81.32667
83576171.875,-81.28417
83585937.5,-81.26953
83595703.125,-81.41685
83605468.75,-81.12041
83615234.375,-81.321365
83625000.0,-81.30075
83634765.625,-81.335785
83644531.25,-81.45806
83654296.875,-81.46575
83664062.5,-81.24371
83673828.125,-81.11405
83683593.75,-81.12789
83693359.375,-81.097244
83703125.0,-81.104675
83712890.625,-81.19223
83722656.25,-81.26843
83732421.875,-81.334755
83742187.5,-81.36987
83751953.125,-81.22177
83761718.75,-81.02487
83771484.375,-81.19842
83781250.0,-81.16458
83791015.625,-81.23867
83800781.25,-81.22262
83810546.875,-81.29843
83820312.5,-81.38233
83830078.125,-81.275925
83839843.75,-81.38396
83849609.375,-81.24627
83859375.0,-81.41969
83869140.625,-81.499664
83878906.25,-81.40046
83888671.875,-81.31035
83898437.5,-81.517914
83908203.125,-81.36949
83917968.75,-81.252754
83927734.375,-81.14186
83937500.0,-81.213715
83947265.625,-81.30513
83957031.25,-81.45555
83966796.875,-81.41339
83976562.5,-81.40448
83986328.125,-81.3909
83996093.75,-81.15403
84005859.375,-81.1285
84015625.0,-81.27384
84025390.625,-81.32163
84035156.25,-81.23322
84044921.875,-81.15943
84054687.5,-81.118095
84064453.125,-81.2051
84074218.75,-81.26997
84083984.375,-81.24541
84093750.0,-81.122604
84103515.625,-81.05174
84113281.25,-81.21456
84123046.875,-81.34825
84132812.5,-81.14177
84142578.125,-81.24004
84152343.75,-81.436905
84162109.375,-81.44878
84171875.0,-81.27151
84181640.625,-81.28392
84191406.25,-81.21164
84201171.875,-81.34691
84210937.5,-81.30446
84220703.125,-81.20136
84230468.75,-81.30191
84240234.375,-81.376205
84250000.0,-81.28578
84259765.625,-81.17103
84269531.25,-81.10977
84279296.875,-80.80895
84289062.5,-80.96994
84298828.125,-81.241516
84308593.75,-81.2362
84318359.375,-81.25907
84328125.0,-81.28136
84337890.625,-81.378525
84347656.25,-81.382034
84357421.875,-81.317764
84367187.5,-81.35724
84376953.125,-81.37518
84386718.75,-81.3179
84396484.375,-81.234924
84406250.0,-81.22552
84416015.625,-81.29564
84425781.25,-81.35758
84435546.875,-81.28094
84445312.5,-81.389694
84455078.125,-81.16172
84464843.75,-81.15369
84474609.375,-81.198875
84484375.0,-81.4095
84494140.625,-81.468475
84503906.25,-81.26132
84513671.875,-81.33111
84523437.5,-81.42314
84533203.125,-81.32789
84542968.75,-81.33832
84552734.375,-81.2446
84562500.0,-81.315956
84572265.625,-81.26746
84582031.25,-81.329025
84591796.875,-81.27465
84601562.5,-81.31357
84611328.125,-81.40114
84621093.75,-81.286865
84630859.375,-81.31941
84640625.0,-81.218475
84650390.625,-81.44501
84660156.25,-81.421555
84669921.875,-81.35622
84679687.5,-81.39748
84689453.125,-81.34218
84699218.75,-81.13506
84708984.375,-81.23781
84718750.0,-81.35686
84728515.625,-81.23105
84738281.25,-81.37542
84748046.875,-81.275795
84757812.5,-81.22258
84767578.125,-81.199455
84777343.75,-81.30774
84787109.375,-81.318954
84796875.0,-81.19607
84806640.625,-81.247345
84816406.25,-81.104645
84826171.875,-81.3021
84835937.5,-81.191696
84845703.125,-81.17249
84855468.75,-81.34186
84865234.375,-81.52586
84875000.0,-81.34956
84884765.625,-81.22102
84894531.25,-81.16532
84904296.875,-81.0701
84914062.5,-81.10222
84923828.125,-81.176384
84933593.75,-81.201164
84943359.375,-81.30978
84953125.0,-81.324066
84962890.625,-81.352295
84972656.25,-81.34987
84982421.875,-81.23581
84992187.5,-81.24043
85001953.125,-81.14028
85011718.75,-81.1842
85021484.375,-81.24321
85031250.0,-81.26453
85041015.625,-81.08798
85050781.25,-81.02185
85060546.875,-81.275215
85070312.5,-81.43678
85080078.125,-81.378586
85089843.75,-81.325424
85099609.375,-81.070145
85109375.0,-81.1512
85119140.625,-81.37814
85128906.25,-81.3624
85138671.875,-81.38466
85148437.5,-81.57887
85158203.125,-81.39409
85167968.75,-81.25493
85177734.375,-81.29297
85187500.0,-81.27659
85197265.625,-81.33987
85207031.25,-81.29616
85216796.875,-81.293045
85226562.5,-81.25149
85236328.125,-81.185265
85246093.75,-81.11168
85255859.375,-81.24734
85265625.0,-81.42552
85275390.625,-81.385666
85285156.25,-81.37311
85294921.875,-81.28424
85304687.5,-81.17163
85314453.125,-81.30202
85324218.75,-81.28625
85333984.375,-81.350235
85343750.0,-81.19404
85353515.625,-81.507965
85363281.25,-81.62286
85373046.875,-81.36359
85382812.5,-81.20136
85392578.125,-81.23618
85402343.75,-81.395645
85412109.375,-81.44349
85421875.0,-81.389534
85431640.625,-81.334915
85441406.25,-81.24307
85451171.875,-81.27244
85460937.5,-81.268074
85470703.125,-81.27818
85480468.75,-81.255226
85490234.375,-81.21819
85500000.0,-81.24206
85509765.625,-81.235214
85519531.25,-81.18288
85529296.875,-81.31607
85539062.5,-81.41936
85548828.125,-81.407005
85558593.75,-81.37719
85568359.375,-81.282265
85578125.0,-81.23967
85587890.625,-81.23541
85597656.25,-81.17362
85607421.875,-81.11763
85617187.5,-81.24432
85626953.125,-81.201744
85636718.75,-81.19132
85646484.375,-81.26468
85656250.0,-81.22493
85666015.625,-81.386475
85675781.25,-81.455734
85685546.875,-81.21605
85695312.5,-81.17026
85705078.125,-81.34839
85714843.75,-81.49809
85724609.375,-81.45262
85734375.0,-81.40255
85744140.625,-81.21942
85753906.25,-81.17042
85763671.875,-81.235504
85773437.5,-81.28414
85783203.125,-81.40477
85792968.75,-81.45924
85802734.375,-81.45608
85812500.0,-81.33266
85822265.625,-81.19605
85832031.25,-81.1069
85841796.875,-81.33595
85851562.5,-81.5844
85861328.125,-81.46333
85871093.75,-81.05133
85880859.375,-81.34921
85890625.0,-81.39963
85900390.625,-81.29182
85910156.25,-81.3463
85919921.875,-81.46944
85929687.5,-81.55968
85939453.125,-81.514114
85949218.75,-81.5061
85958984.375,-81.33116
85968750.0,-81.18979
85978515.625,-81.33066
85988281.25,-81.44028
85998046.875,-81.38388
86007812.5,-81.33536
86017578.125,-81.37603
86027343.75,-81.444534
86037109.375,-81.24159
86046875.0,-81.275925
86056640.625,-81.3227
86066406.25,-81.195465
86076171.875,-81.24058
86085937.5,-81.36715
86095703.125,-81.29848
86105468.75,-81.502396
86115234.375,-81.33892
86125000.0,-81.17926
86134765.625,-81.35459
86144531.25,-81.35017
86154296.875,-81.155205
86164062.5,-81.315674
86173828.125,-81.239555
86183593.75,-81.21609
86193359.375,-81.40199
86203125.0,-81.365845
86212890.625,-81.39781
86222656.25,-81.46779
86232421.875,-81.34445
86242187.5,-81.234116
86251953.125,-81.21982
86261718.75,-81.27515
86271484.375,-81.290215
86281250.0,-81.36937
86291015.625,-81.23478
86300781.25,-81.30576
86310546.875,-81.30568
86320312.5,-81.36967
