Frequency (Hz),PSD (dBfs)
87000000.0,-70.09957
87000976.5625,-70.3806
87001953.125,-70.43509
87002929.6875,-70.49218
87003906.25,-70.57939
87004882.8125,-70.67554
87005859.375,-70.47352
87006835.9375,-70.477104
87007812.5,-70.53411
87008789.0625,-70.51088
87009765.625,-70.61073
87010742.1875,-70.384766
87011718.75,-70.3723
87012695.3125,-70.62289
87013671.875,-70.64019
87014648.4375,-70.50743
87015625.0,-70.34941
87016601.5625,-70.45724
87017578.125,-70.610405
87018554.6875,-70.47675
87019531.25,-70.31119
87020507.8125,-70.4504
87021484.375,-70.56792
87022460.9375,-70.51765
87023437.5,-70.37975
87024414.0625,-70.2699
87025390.625,-70.44676
87026367.1875,-70.569695
87027343.75,-70.65309
87028320.3125,-70.64904
87029296.875,-70.62944
87030273.4375,-70.50348
87031250.0,-70.46695
87032226.5625,-70.574356
87033203.125,-70.534424
87034179.6875,-70.59216
87035156.25,-70.68756
87036132.8125,-70.5975
87037109.375,-70.67819
87038085.9375,-70.6202
87039062.5,-70.59747
87040039.0625,-70.74371
87041015.625,-70.554794
87041992.1875,-70.49567
87042968.75,-70.684044
87043945.3125,-70.68963
87044921.875,-70.37512
87045898.4375,-70.43889
87046875.0,-70.60319
87047851.5625,-70.54848
87048828.125,-70.57919
87049804.6875,-70.60986
87050781.25,-70.58336
87051757.8125,-70.57848
87052734.375,-70.56305
87053710.9375,-70.460976
87054687.5,-70.45678
87055664.0625,-70.461105
87056640.625,-70.39694
87057617.1875,-70.234535
87058593.75,-70.38828
87059570.3125,-70.43502
87060546.875,-70.19605
87061523.4375,-70.2294
87062500.0,-70.287506
87063476.5625,-70.21237
87064453.125,-70.384094
87065429.6875,-70.3637
87066406.25,-70.43629
87067382.8125,-70.515854
87068359.375,-70.65282
87069335.9375,-70.61221
87070312.5,-70.608635
87071289.0625,-70.54137
87072265.625,-70.363144
87073242.1875,-70.31703
87074218.75,-70.36921
87075195.3125,-70.33139
87076171.875,-70.27306
87077148.4375,-70.36004
87078125.0,-70.51079
87079101.5625,-70.36258
87080078.125,-70.30544
87081054.6875,-70.582344
87082031.25,-70.55552
87083007.8125,-70.58227
87083984.375,-70.63346
87084960.9375,-70.42894
87085937.5,-70.48028
87086914.0625,-70.501335
87087890.625,-70.56657
87088867.1875,-70.53601
87089843.75,-70.504944
87090820.3125,-70.6664
87091796.875,-70.73041
87092773.4375,-70.581635
87093750.0,-70.56018
87094726.5625,-70.65159
87095703.125,-70.40516
87096679.6875,-70.42637
87097656.25,-70.43669
87098632.8125,-70.44587
87099609.375,-70.496056
87100585.9375,-70.65465
87101562.5,-70.52945
87102539.0625,-70.55848
87103515.625,-70.608185
87104492.1875,-70.57626
87105468.75,-70.62518
87106445.3125,-70.60023
87107421.875,-70.57203
87108398.4375,-70.45286
87109375.0,-70.377174
87110351.5625,-70.316536
87111328.125,-70.44564
87112304.6875,-70.476845
87113281.25,-70.586685
87114257.8125,-70.65009
87115234.375,-70.44679
87116210.9375,-70.43138
87117187.5,-70.46576
87118164.0625,-70.354
87119140.625,-70.4338
87120117.1875,-70.594574
87121093.75,-70.465996
87122070.3125,-70.559845
87123046.875,-70.53021
87124023.4375,-70.30547
87125000.0,-70.36057
87125976.5625,-70.58148
87126953.125,-70.46536
87127929.6875,-70.376686
87128906.25,-70.46679
87129882.8125,-70.303696
87130859.375,-70.165985
87131835.9375,-70.094864
87132812.5,-69.80826
87133789.0625,-69.31738
87134765.625,-68.73987
87135742.1875,-68.5196
87136718.75,-68.30822
87137695.3125,-68.282616
87138671.875,-68.254715
87139648.4375,-68.27576
87140625.0,-68.5526
87141601.5625,-68.7743
87142578.125,-68.980675
87143554.6875,-69.20114
87144531.25,-69.18044
87145507.8125,-69.13852
87146484.375,-69.45262
87147460.9375,-69.81225
87148437.5,-70.01565
87149414.0625,-70.320854
87150390.625,-70.28688
87151367.1875,-70.46084
87152343.75,-70.51021
87153320.3125,-70.54521
87154296.875,-70.5481
87155273.4375,-70.536446
87156250.0,-70.50254
87157226.5625,-70.76213
87158203.125,-70.542175
87159179.6875,-70.46527
87160156.25,-70.37669
87161132.8125,-69.52358
87162109.375,-68.411476
87163085.9375,-68.95156
87164062.5,-68.93938
87165039.0625,-69.164276
87166015.625,-69.10939
87166992.1875,-69.07644
87167968.75,-69.32286
87168945.3125,-69.78272
87169921.875,-69.925125
87170898.4375,-69.841064
87171875.0,-69.76851
87172851.5625,-69.85919
87173828.125,-70.08882
87174804.6875,-69.95345
87175781.25,-69.805435
87176757.8125,-69.77076
87177734.375,-69.67521
87178710.9375,-70.09534
87179687.5,-70.40681
87180664.0625,-70.48163
87181640.625,-70.44083
87182617.1875,-70.59035
87183593.75,-70.52537
87184570.3125,-70.47265
87185546.875,-70.52208
87186523.4375,-70.53434
87187500.0,-70.401184
87188476.5625,-70.382706
87189453.125,-70.40681
87190429.6875,-70.41403
87191406.25,-70.37931
87192382.8125,-70.43333
87193359.375,-70.485886
87194335.9375,-70.60434
87195312.5,-70.62067
87196289.0625,-70.37837
87197265.625,-70.41156
87198242.1875,-70.46887
87199218.75,-64.95128
87200195.3125,-62.14064
87201171.875,-67.88781
87202148.4375,-70.13938
87203125.0,-70.25657
87204101.5625,-70.25679
87205078.125,-70.24179
87206054.6875,-70.340904
87207031.25,-70.421936
87208007.8125,-70.43321
87208984.375,-70.57159
87209960.9375,-70.54346
87210937.5,-70.58639
87211914.0625,-70.64608
87212890.625,-70.52455
87213867.1875,-70.33591
87214843.75,-70.46791
87215820.3125,-70.66457
87216796.875,-70.57237
87217773.4375,-70.516136
87218750.0,-70.43826
87219726.5625,-70.54376
87220703.125,-70.53384
87221679.6875,-70.43777
87222656.25,-70.46522
87223632.8125,-70.36899
87224609.375,-70.051605
87225585.9375,-69.44957
87226562.5,-68.11369
87227539.0625,-66.30709
87228515.625,-64.08942
87229492.1875,-62.35369
87230468.75,-60.755657
87231445.3125,-60.66414
87232421.875,-62.798782
87233398.4375,-65.417015
87234375.0,-67.630005
87235351.5625,-68.77295
87236328.125,-69.02933
87237304.6875,-69.67418
87238281.25,-70.259636
87239257.8125,-70.43547
87240234.375,-70.35138
87241210.9375,-70.28619
87242187.5,-70.33345
87243164.0625,-70.37126
87244140.625,-70.34417
87245117.1875,-70.36384
87246093.75,-70.3185
87247070.3125,-70.332054
87248046.875,-70.20741
87249023.4375,-70.20884
87250000.0,-70.28119
87250976.5625,-70.275085
87251953.125,-70.305336
87252929.6875,-70.25188
87253906.25,-70.35062
87254882.8125,-70.303734
87255859.375,-70.18542
87256835.9375,-70.1854
87257812.5,-70.37952
87258789.0625,-70.38107
87259765.625,-70.38176
87260742.1875,-70.36215
87261718.75,-70.17871
87262695.3125,-70.140945
87263671.875,-70.27788
87264648.4375,-70.29097
87265625.0,-70.335396
87266601.5625,-70.363335
87267578.125,-70.368484
87268554.6875,-70.432106
87269531.25,-70.34066
87270507.8125,-70.47771
87271484.375,-70.40331
87272460.9375,-70.441605
87273437.5,-70.484856
87274414.0625,-70.5507
87275390.625,-70.631805
87276367.1875,-70.50118
87277343.75,-70.577156
87278320.3125,-70.64155
87279296.875,-70.67252
87280273.4375,-70.54628
87281250.0,-70.55089
87282226.5625,-70.52863
87283203.125,-70.559166
87284179.6875,-70.36918
87285156.25,-70.24902
87286132.8125,-70.211174
87287109.375,-70.19064
87288085.9375,-70.25535
87289062.5,-69.840096
87290039.0625,-69.872314
87291015.625,-70.426506
87291992.1875,-70.41078
87292968.75,-69.958565
87293945.3125,-70.07446
87294921.875,-70.46451
87295898.4375,-70.38378
87296875.0,-70.43117
87297851.5625,-70.39934
87298828.125,-70.42731
87299804.6875,-70.49137
87300781.25,-70.576416
87301757.8125,-70.765564
87302734.375,-70.58444
87303710.9375,-70.58812
87304687.5,-70.58171
87305664.0625,-70.58654
87306640.625,-70.54679
87307617.1875,-70.60383
87308593.75,-70.51695
87309570.3125,-70.42184
87310546.875,-70.60579
87311523.4375,-70.62399
87312500.0,-70.4778
87313476.5625,-70.40057
87314453.125,-70.503265
87315429.6875,-70.427185
87316406.25,-70.46418
87317382.8125,-70.467155
87318359.375,-70.3929
87319335.9375,-70.468704
87320312.5,-70.43045
87321289.0625,-70.56138
87322265.625,-70.59431
87323242.1875,-70.54271
87324218.75,-70.56027
87325195.3125,-70.57184
87326171.875,-70.60187
87327148.4375,-70.512634
87328125.0,-70.68025
87329101.5625,-70.60281
87330078.125,-70.414635
87331054.6875,-70.45373
87332031.25,-70.47703
87333007.8125,-70.655525
87333984.375,-70.58115
87334960.9375,-70.58929
87335937.5,-70.611336
87336914.0625,-70.60874
87337890.625,-70.54304
87338867.1875,-70.51892
87339843.75,-70.535065
87340820.3125,-70.60338
87341796.875,-70.61533
87342773.4375,-70.51026
87343750.0,-70.49974
87344726.5625,-70.49107
87345703.125,-70.32955
87346679.6875,-70.48941
87347656.25,-70.55934
87348632.8125,-70.642654
87349609.375,-70.61645
87350585.9375,-70.65232
87351562.5,-70.65429
87352539.0625,-70.58449
87353515.625,-70.52951
87354492.1875,-70.42242
87355468.75,-70.421844
87356445.3125,-70.470634
87357421.875,-70.59807
87358398.4375,-70.757965
87359375.0,-70.70204
87360351.5625,-70.5931
87361328.125,-70.583206
87362304.6875,-70.5002
87363281.25,-70.68206
87364257.8125,-70.64341
87365234.375,-70.60207
87366210.9375,-70.62699
87367187.5,-70.411026
87368164.0625,-70.327385
87369140.625,-70.408264
87370117.1875,-70.3905
87371093.75,-70.3247
87372070.3125,-70.329865
87373046.875,-70.35262
87374023.4375,-70.48892
87375000.0,-70.60304
87375976.5625,-70.66749
87376953.125,-70.726364
87377929.6875,-70.60033
87378906.25,-70.449684
87379882.8125,-70.39501
87380859.375,-70.56083
87381835.9375,-70.68843
87382812.5,-70.69376
87383789.0625,-70.63802
87384765.625,-70.70152
87385742.1875,-70.674675
87386718.75,-70.81304
87387695.3125,-70.8853
87388671.875,-70.74979
87389648.4375,-70.68475
87390625.0,-70.54262
87391601.5625,-70.566246
87392578.125,-70.61518
87393554.6875,-70.51914
87394531.25,-70.50767
87395507.8125,-70.47875
87396484.375,-70.47381
87397460.9375,-70.28464
87398437.5,-70.19013
87399414.0625,-70.21248
87400390.625,-70.204765
87401367.1875,-70.32707
87402343.75,-70.2727
87403320.3125,-70.43147
87404296.875,-70.52576
87405273.4375,-70.45293
87406250.0,-70.545876
87407226.5625,-70.551704
87408203.125,-70.52232
87409179.6875,-70.654076
87410156.25,-70.59381
87411132.8125,-70.453545
87412109.375,-70.55936
87413085.9375,-70.51699
87414062.5,-70.5505
87415039.0625,-70.619156
87416015.625,-70.4837
87416992.1875,-70.614975
87417968.75,-70.63122
87418945.3125,-70.506714
87419921.875,-70.42108
87420898.4375,-70.53717
87421875.0,-70.58328
87422851.5625,-70.53791
87423828.125,-70.49395
87424804.6875,-70.54186
87425781.25,-70.60474
87426757.8125,-70.669624
87427734.375,-70.6994
87428710.9375,-70.74222
87429687.5,-70.72837
87430664.0625,-70.58115
87431640.625,-70.61803
87432617.1875,-70.62077
87433593.75,-70.659035
87434570.3125,-70.74599
87435546.875,-70.55592
87436523.4375,-70.42894
87437500.0,-70.473404
87438476.5625,-70.50139
87439453.125,-70.629105
87440429.6875,-70.62306
87441406.25,-70.61111
87442382.8125,-70.68364
87443359.375,-70.56338
87444335.9375,-70.493195
87445312.5,-70.47615
87446289.0625,-70.535446
87447265.625,-70.481804
87448242.1875,-70.65881
87449218.75,-70.79663
87450195.3125,-70.52675
87451171.875,-70.396576
87452148.4375,-70.32005
87453125.0,-70.430664
87454101.5625,-70.67671
87455078.125,-70.71251
87456054.6875,-70.570015
87457031.25,-70.65268
87458007.8125,-70.462845
87458984.375,-70.350525
87459960.9375,-70.4293
87460937.5,-70.43985
87461914.0625,-70.44008
87462890.625,-70.48051
87463867.1875,-70.52799
87464843.75,-70.72328
87465820.3125,-70.56637
87466796.875,-70.545074
87467773.4375,-70.630806
87468750.0,-70.70949
87469726.5625,-70.670555
87470703.125,-70.72677
87471679.6875,-70.62176
87472656.25,-70.56306
87473632.8125,-70.41868
87474609.375,-70.510284
87475585.9375,-70.74991
87476562.5,-70.52024
87477539.0625,-70.551186
87478515.625,-70.54575
87479492.1875,-70.43634
87480468.75,-70.51886
87481445.3125,-70.63435
87482421.875,-70.52849
87483398.4375,-70.51324
87484375.0,-70.61458
87485351.5625,-70.615265
87486328.125,-70.50366
87487304.6875,-70.54178
87488281.25,-70.69301
87489257.8125,-70.678085
87490234.375,-70.42466
87491210.9375,-70.33763
87492187.5,-70.47162
87493164.0625,-70.52319
87494140.625,-70.583145
87495117.1875,-70.60328
87496093.75,-70.5642
87497070.3125,-70.844666
87498046.875,-70.67066
87499023.4375,-70.34022
87500000.0,-69.98732
87500976.5625,-70.50216
87501953.125,-70.53437
87502929.6875,-70.50136
87503906.25,-70.63249
87504882.8125,-70.48507
87505859.375,-70.40173
87506835.9375,-70.452446
87507812.5,-70.44313
87508789.0625,-70.62219
87509765.625,-70.52629
87510742.1875,-70.472916
87511718.75,-70.63218
87512695.3125,-70.41782
87513671.875,-70.58876
87514648.4375,-70.65345
87515625.0,-70.628845
87516601.5625,-70.63277
87517578.125,-70.67786
87518554.6875,-70.698715
87519531.25,-70.70677
87520507.8125,-70.6832
87521484.375,-70.42657
87522460.9375,-70.64586
87523437.5,-70.74817
87524414.0625,-70.58333
87525390.625,-70.65312
87526367.1875,-70.50736
87527343.75,-70.52725
87528320.3125,-70.682304
87529296.875,-70.48094
87530273.4375,-70.41845
87531250.0,-70.42998
87532226.5625,-70.133835
87533203.125,-70.0376
87534179.6875,-70.072784
87535156.25,-69.946594
87536132.8125,-69.874176
87537109.375,-69.7243
87538085.9375,-69.54139
87539062.5,-69.68586
87540039.0625,-69.98244
87541015.625,-70.11916
87541992.1875,-70.16808
87542968.75,-70.27026
87543945.3125,-70.58369
87544921.875,-70.772644
87545898.4375,-70.54435
87546875.0,-70.60395
87547851.5625,-70.70115
87548828.125,-70.75192
87549804.6875,-70.58262
87550781.25,-70.622185
87551757.8125,-70.76535
87552734.375,-70.61778
87553710.9375,-70.439766
87554687.5,-70.43249
87555664.0625,-70.63349
87556640.625,-70.57807
87557617.1875,-70.74845
87558593.75,-70.72068
87559570.3125,-70.62295
87560546.875,-70.73215
87561523.4375,-70.62652
87562500.0,-70.49168
87563476.5625,-70.41616
87564453.125,-70.443085
87565429.6875,-70.36059
87566406.25,-70.37817
87567382.8125,-70.08423
87568359.375,-69.96918
87569335.9375,-69.958466
87570312.5,-70.17894
87571289.0625,-70.255775
87572265.625,-70.36882
87573242.1875,-70.50046
87574218.75,-70.63531
87575195.3125,-70.67905
87576171.875,-70.591194
87577148.4375,-70.732666
87578125.0,-70.53119
87579101.5625,-70.58313
87580078.125,-70.76462
87581054.6875,-70.60052
87582031.25,-70.564125
87583007.8125,-70.53673
87583984.375,-70.57006
87584960.9375,-70.47822
87585937.5,-70.536964
87586914.0625,-70.7437
87587890.625,-70.75325
87588867.1875,-70.743805
87589843.75,-70.677765
87590820.3125,-70.39868
87591796.875,-70.32723
87592773.4375,-70.283394
87593750.0,-70.10885
87594726.5625,-69.828575
87595703.125,-69.538994
87596679.6875,-69.121124
87597656.25,-68.729095
87598632.8125,-68.532196
87599609.375,-68.45726
87600585.9375,-68.38456
87601562.5,-68.47386
87602539.0625,-68.5467
87603515.625,-68.56938
87604492.1875,-69.04324
87605468.75,-69.324646
87606445.3125,-69.44791
87607421.875,-69.84161
87608398.4375,-70.267075
87609375.0,-70.42462
87610351.5625,-70.5613
87611328.125,-70.45278
87612304.6875,-70.57213
87613281.25,-70.57877
87614257.8125,-70.59023
87615234.375,-70.638664
87616210.9375,-70.69714
87617187.5,-70.54923
87618164.0625,-70.548904
87619140.625,-70.43523
87620117.1875,-70.073845
87621093.75,-69.50824
87622070.3125,-68.62497
87623046.875,-67.48524
87624023.4375,-66.22569
87625000.0,-65.170715
87625976.5625,-64.85368
87626953.125,-64.855
87627929.6875,-64.18085
87628906.25,-63.80538
87629882.8125,-63.89381
87630859.375,-63.989395
87631835.9375,-64.252846
87632812.5,-64.27953
87633789.0625,-64.57165
87634765.625,-65.97922
87635742.1875,-67.42019
87636718.75,-68.38373
87637695.3125,-69.19081
87638671.875,-69.78423
87639648.4375,-70.158165
87640625.0,-70.431946
87641601.5625,-70.54415
87642578.125,-70.62458
87643554.6875,-70.47313
87644531.25,-70.63941
87645507.8125,-70.74519
87646484.375,-70.62367
87647460.9375,-70.72461
87648437.5,-70.708664
87649414.0625,-70.53151
87650390.625,-70.53173
87651367.1875,-70.67027
87652343.75,-70.73201
87653320.3125,-70.7437
87654296.875,-70.87844
87655273.4375,-70.8092
87656250.0,-70.63843
87657226.5625,-70.412155
87658203.125,-70.40665
87659179.6875,-70.41882
87660156.25,-70.340324
87661132.8125,-70.43317
87662109.375,-70.50439
87663085.9375,-70.611534
87664062.5,-70.67028
87665039.0625,-70.635735
87666015.625,-70.5134
87666992.1875,-70.71808
87667968.75,-70.67947
87668945.3125,-70.7566
87669921.875,-70.86575
87670898.4375,-70.72906
87671875.0,-70.71404
87672851.5625,-70.777725
87673828.125,-70.70037
87674804.6875,-70.55199
87675781.25,-70.64815
87676757.8125,-70.66499
87677734.375,-70.674576
87678710.9375,-70.67144
87679687.5,-70.75373
87680664.0625,-70.49233
87681640.625,-70.50819
87682617.1875,-70.53682
87683593.75,-70.50586
87684570.3125,-70.56458
87685546.875,-70.83385
87686523.4375,-70.67719
87687500.0,-70.57473
87688476.5625,-70.6093
87689453.125,-70.555984
87690429.6875,-70.59535
87691406.25,-70.52994
87692382.8125,-70.725624
87693359.375,-70.717865
87694335.9375,-70.75737
87695312.5,-70.88675
87696289.0625,-70.68288
87697265.625,-70.61473
87698242.1875,-70.68028
87699218.75,-70.66161
87700195.3125,-70.860146
87701171.875,-70.844345
87702148.4375,-70.83714
87703125.0,-70.76819
87704101.5625,-70.70461
87705078.125,-70.5968
87706054.6875,-70.72553
87707031.25,-70.83995
87708007.8125,-70.87706
87708984.375,-70.78722
87709960.9375,-70.802826
87710937.5,-70.66857
87711914.0625,-70.691925
87712890.625,-70.79139
87713867.1875,-70.85745
87714843.75,-70.89334
87715820.3125,-70.744606
87716796.875,-70.633804
87717773.4375,-70.540436
87718750.0,-70.54055
87719726.5625,-70.64296
87720703.125,-70.5943
87721679.6875,-70.73665
87722656.25,-70.976555
87723632.8125,-70.88853
87724609.375,-70.77135
87725585.9375,-70.735634
87726562.5,-70.68447
87727539.0625,-70.85805
87728515.625,-70.72859
87729492.1875,-70.78553
87730468.75,-70.821655
87731445.3125,-70.730225
87732421.875,-70.68399
87733398.4375,-70.792206
87734375.0,-70.70189
87735351.5625,-70.65766
87736328.125,-70.5852
87737304.6875,-70.61261
87738281.25,-70.59277
87739257.8125,-70.55482
87740234.375,-70.62926
87741210.9375,-70.79059
87742187.5,-70.70499
87743164.0625,-70.65998
87744140.625,-70.58299
87745117.1875,-70.59746
87746093.75,-70.714966
87747070.3125,-70.72366
87748046.875,-70.633865
87749023.4375,-70.58504
87750000.0,-70.486115
87750976.5625,-70.627426
87751953.125,-70.72613
87752929.6875,-70.60596
87753906.25,-70.75194
87754882.8125,-70.68207
87755859.375,-70.659424
87756835.9375,-70.56028
87757812.5,-70.583466
87758789.0625,-70.752464
87759765.625,-70.93319
87760742.1875,-70.78893
87761718.75,-70.75097
87762695.3125,-70.665695
87763671.875,-70.57184
87764648.4375,-70.63438
87765625.0,-70.798096
87766601.5625,-70.73118
87767578.125,-70.73978
87768554.6875,-70.69903
87769531.25,-70.61065
87770507.8125,-70.69541
87771484.375,-70.6552
87772460.9375,-70.84598
87773437.5,-70.67143
87774414.0625,-70.59158
87775390.625,-70.63264
87776367.1875,-70.63419
87777343.75,-70.57921
87778320.3125,-70.56815
87779296.875,-70.57887
87780273.4375,-70.6846
87781250.0,-70.6418
87782226.5625,-70.68636
87783203.125,-70.73549
87784179.6875,-70.78773
87785156.25,-70.78888
87786132.8125,-70.7911
87787109.375,-70.81043
87788085.9375,-70.82622
87789062.5,-70.68059
87790039.0625,-70.53798
87791015.625,-70.52029
87791992.1875,-70.72309
87792968.75,-70.78994
87793945.3125,-70.5656
87794921.875,-70.58725
87795898.4375,-70.60751
87796875.0,-70.50162
87797851.5625,-70.53433
87798828.125,-70.67236
87799804.6875,-70.621544
87800781.25,-70.55035
