Frequency (Hz),PSD (dBm)
108000000.0,-70.22292
108009765.625,-70.24194
108019531.25,-70.24313
108029296.875,-70.294914
108039062.5,-70.29517
108048828.125,-70.257484
108058593.75,-70.23683
108068359.375,-70.27028
108078125.0,-70.240364
108087890.625,-70.188835
108097656.25,-70.22425
108107421.875,-70.218704
108117187.5,-70.20683
108126953.125,-70.21989
108136718.75,-70.2283
108146484.375,-70.241974
108156250.0,-70.29057
108166015.625,-70.28749
108175781.25,-70.26128
108185546.875,-70.26856
108195312.5,-70.25294
108205078.125,-70.26206
108214843.75,-70.26827
108224609.375,-70.27869
108234375.0,-70.27452
108244140.625,-70.247086
108253906.25,-70.26538
108263671.875,-70.25085
108273437.5,-70.229744
108283203.125,-70.24835
108292968.75,-70.24717
108302734.375,-70.299576
108312500.0,-70.2584
108322265.625,-70.194405
108332031.25,-70.21763
108341796.875,-70.24875
108351562.5,-70.23715
108361328.125,-70.21515
108371093.75,-70.18852
108380859.375,-70.24421
108390625.0,-70.217766
108400390.625,-70.23065
108410156.25,-70.260345
108419921.875,-70.2731
108429687.5,-70.22749
108439453.125,-70.24603
108449218.75,-70.23539
108458984.375,-70.25622
108468750.0,-70.24344
108478515.625,-70.25531
108488281.25,-70.270454
108498046.875,-70.33326
108507812.5,-70.28275
108517578.125,-70.24425
108527343.75,-70.32123
108537109.375,-70.294174
108546875.0,-70.25523
108556640.625,-70.29756
108566406.25,-70.29075
108576171.875,-70.30461
108585937.5,-70.32756
108595703.125,-70.266335
108605468.75,-70.282104
108615234.375,-70.28001
108625000.0,-70.25962
108634765.625,-70.25436
108644531.25,-70.270226
108654296.875,-70.25878
108664062.5,-70.297554
108673828.125,-70.31794
108683593.75,-70.2677
108693359.375,-70.26822
108703125.0,-70.23807
108712890.625,-70.23714
108722656.25,-70.23178
108732421.875,-70.201645
108742187.5,-70.25405
108751953.125,-70.26391
108761718.75,-70.29628
108771484.375,-70.22624
108781250.0,-70.246216
108791015.625,-70.23099
108800781.25,-70.26419
108810546.875,-70.31009
108820312.5,-70.33649
108830078.125,-70.30443
108839843.75,-70.27379
108849609.375,-70.31877
108859375.0,-70.30652
108869140.625,-70.27403
108878906.25,-70.238716
108888671.875,-70.22372
108898437.5,-70.20116
108908203.125,-70.20833
108917968.75,-70.269135
108927734.375,-70.26794
108937500.0,-70.25874
108947265.625,-70.23534
108957031.25,-70.28111
108966796.875,-70.300644
108976562.5,-70.29863
108986328.125,-70.298355
108996093.75,-70.31467
109005859.375,-70.28436
109015625.0,-70.22559
109025390.625,-70.24165
109035156.25,-70.26453
109044921.875,-70.24082
109054687.5,-70.278625
109064453.125,-70.27938
109074218.75,-70.203354
109083984.375,-70.1887
109093750.0,-70.03158
109103515.625,-69.79942
109113281.25,-69.98748
109123046.875,-70.229225
109132812.5,-70.266426
109142578.125,-70.26208
109152343.75,-70.268585
109162109.375,-70.27709
109171875.0,-70.242775
109181640.625,-70.26933
109191406.25,-70.25626
109201171.875,-70.25874
109210937.5,-70.25354
109220703.125,-70.24843
109230468.75,-70.28491
109240234.375,-70.26443
109250000.0,-70.24178
109259765.625,-70.25877
109269531.25,-70.22576
109279296.875,-70.19
109289062.5,-70.19382
109298828.125,-70.21485
109308593.75,-70.24785
109318359.375,-70.24131
109328125.0,-70.278435
109337890.625,-70.26131
109347656.25,-70.27582
109357421.875,-70.2894
109367187.5,-70.270966
109376953.125,-70.26551
109386718.75,-70.251366
109396484.375,-70.25957
109406250.0,-70.28314
109416015.625,-70.25079
109425781.25,-70.328026
109435546.875,-70.3232
109445312.5,-70.29757
109455078.125,-70.296005
109464843.75,-70.26396
109474609.375,-70.24367
109484375.0,-70.223755
109494140.625,-70.1933
109503906.25,-70.21918
109513671.875,-70.263245
109523437.5,-70.30567
109533203.125,-70.31122
109542968.75,-70.34212
109552734.375,-70.30376
109562500.0,-70.184845
109572265.625,-70.23283
109582031.25,-70.31713
109591796.875,-70.22481
109601562.5,-70.253586
109611328.125,-70.31308
109621093.75,-70.22747
109630859.375,-70.25212
109640625.0,-70.26589
109650390.625,-70.248146
109660156.25,-70.291306
109669921.875,-70.326126
109679687.5,-70.3042
109689453.125,-70.23762
109699218.75,-70.26511
109708984.375,-70.28485
109718750.0,-70.304924
109728515.625,-70.32006
109738281.25,-70.39755
109748046.875,-70.33191
109757812.5,-70.23101
109767578.125,-70.20339
109777343.75,-70.24991
109787109.375,-70.244705
109796875.0,-70.21111
109806640.625,-70.2242
109816406.25,-70.21591
109826171.875,-70.282646
109835937.5,-70.32263
109845703.125,-70.2995
109855468.75,-70.27629
109865234.375,-70.22472
109875000.0,-70.248634
109884765.625,-70.31568
109894531.25,-70.280396
109904296.875,-70.269455
109914062.5,-70.28409
109923828.125,-70.26991
109933593.75,-70.28505
109943359.375,-70.3274
109953125.0,-70.27861
109962890.625,-70.27402
109972656.25,-70.243546
109982421.875,-70.26483
109992187.5,-69.77066
110001953.125,-69.18489
110011718.75,-70.09485
110021484.375,-70.24948
110031250.0,-70.26222
110041015.625,-70.29001
110050781.25,-70.31043
110060546.875,-70.2759
110070312.5,-70.20771
110080078.125,-70.25542
110089843.75,-70.247574
110099609.375,-70.242386
110109375.0,-70.24107
110119140.625,-70.2526
110128906.25,-70.27266
110138671.875,-70.20077
110148437.5,-70.17298
110158203.125,-70.176865
110167968.75,-70.18025
110177734.375,-70.21207
110187500.0,-70.27021
110197265.625,-70.25019
110207031.25,-70.23277
110216796.875,-70.24199
110226562.5,-70.27618
110236328.125,-70.26533
110246093.75,-70.252914
110255859.375,-70.253204
110265625.0,-70.22189
110275390.625,-70.19614
110285156.25,-70.15064
110294921.875,-70.18897
110304687.5,-70.20875
110314453.125,-70.21032
110324218.75,-70.188545
110333984.375,-70.20352
110343750.0,-70.18074
110353515.625,-70.18979
110363281.25,-70.19075
110373046.875,-70.229836
110382812.5,-70.26251
110392578.125,-70.23458
110402343.75,-70.2459
110412109.375,-70.2795
110421875.0,-70.254005
110431640.625,-70.19309
110441406.25,-70.25268
110451171.875,-70.24516
110460937.5,-70.25493
110470703.125,-70.247215
110480468.75,-70.25721
110490234.375,-70.2617
110500000.0,-70.28793
110509765.625,-70.26311
110519531.25,-70.20198
110529296.875,-70.1844
110539062.5,-70.22644
110548828.125,-70.197464
110558593.75,-70.17289
110568359.375,-70.222626
110578125.0,-70.26199
110587890.625,-70.2576
110597656.25,-70.2159
110607421.875,-70.220215
110617187.5,-70.21127
110626953.125,-70.24278
110636718.75,-70.25636
110646484.375,-70.217415
110656250.0,-70.22014
110666015.625,-70.2105
110675781.25,-70.18578
110685546.875,-70.14266
110695312.5,-70.1759
110705078.125,-70.21761
110714843.75,-70.207565
110724609.375,-70.157364
110734375.0,-70.153915
110744140.625,-70.16843
110753906.25,-70.22637
110763671.875,-70.22291
110773437.5,-70.20716
110783203.125,-70.195305
110792968.75,-70.185936
110802734.375,-70.17756
110812500.0,-70.23742
110822265.625,-70.24945
110832031.25,-70.25789
110841796.875,-70.17897
110851562.5,-70.1663
110861328.125,-70.17804
110871093.75,-70.20797
110880859.375,-70.21645
110890625.0,-70.21976
110900390.625,-70.19758
110910156.25,-70.17485
110919921.875,-70.19229
110929687.5,-70.21197
110939453.125,-70.200134
110949218.75,-70.19402
110958984.375,-70.178276
110968750.0,-70.24457
110978515.625,-70.23533
110988281.25,-70.14847
110998046.875,-70.15868
111007812.5,-70.2003
111017578.125,-70.213295
111027343.75,-70.22328
111037109.375,-70.159256
111046875.0,-70.163704
111056640.625,-70.15053
111066406.25,-70.12816
111076171.875,-70.16167
111085937.5,-70.215225
111095703.125,-70.16314
111105468.75,-70.12481
111115234.375,-70.17374
111125000.0,-70.217354
111134765.625,-70.23347
111144531.25,-70.22476
111154296.875,-70.25926
111164062.5,-70.23486
111173828.125,-70.20297
111183593.75,-70.16976
111193359.375,-70.194405
111203125.0,-70.23146
111212890.625,-70.19227
111222656.25,-70.217125
111232421.875,-70.18697
111242187.5,-70.21158
111251953.125,-70.21839
111261718.75,-70.22684
111271484.375,-70.25226
111281250.0,-70.23237
111291015.625,-70.17409
111300781.25,-70.194405
111310546.875,-70.205376
111320312.5,-70.20061
111330078.125,-70.198265
111339843.75,-70.16841
111349609.375,-70.18614
111359375.0,-70.10458
111369140.625,-70.183044
111378906.25,-70.24768
111388671.875,-70.25847
111398437.5,-70.26369
111408203.125,-70.260445
111417968.75,-70.26111
111427734.375,-70.218666
111437500.0,-70.194534
111447265.625,-70.23487
111457031.25,-70.19054
111466796.875,-70.05522
111476562.5,-69.87824
111486328.125,-70.00305
111496093.75,-70.14062
111505859.375,-70.213455
111515625.0,-70.25629
111525390.625,-70.27144
111535156.25,-70.281845
111544921.875,-70.24235
111554687.5,-70.17352
111564453.125,-70.17365
111574218.75,-70.21677
111583984.375,-70.22414
111593750.0,-70.20733
111603515.625,-70.191124
111613281.25,-70.24136
111623046.875,-70.17891
111632812.5,-70.14359
111642578.125,-70.196144
111652343.75,-70.16251
111662109.375,-70.183426
111671875.0,-70.24849
111681640.625,-70.237015
111691406.25,-70.153206
111701171.875,-70.20804
111710937.5,-70.223816
111720703.125,-70.22185
111730468.75,-70.1936
111740234.375,-70.188034
111750000.0,-70.19379
111759765.625,-70.19205
111769531.25,-70.15468
111779296.875,-70.150826
111789062.5,-70.13838
111798828.125,-70.18203
111808593.75,-70.2015
111818359.375,-70.15794
111828125.0,-70.18597
111837890.625,-70.1314
111847656.25,-70.12221
111857421.875,-70.156586
111867187.5,-70.15468
111876953.125,-70.1424
111886718.75,-70.18106
111896484.375,-70.2361
111906250.0,-70.22201
111916015.625,-70.18923
111925781.25,-70.17931
111935546.875,-70.21672
111945312.5,-70.19004
111955078.125,-70.135056
111964843.75,-70.14189
111974609.375,-70.17899
111984375.0,-70.17098
111994140.625,-70.15317
112003906.25,-70.11433
112013671.875,-70.148506
112023437.5,-70.20046
112033203.125,-70.18178
112042968.75,-70.18193
112052734.375,-70.163956
112062500.0,-70.175545
112072265.625,-70.197556
112082031.25,-70.22571
112091796.875,-70.20085
112101562.5,-70.11104
112111328.125,-70.17825
112121093.75,-70.19382
112130859.375,-70.173225
112140625.0,-70.17337
112150390.625,-70.137535
112160156.25,-70.15582
112169921.875,-70.15094
112179687.5,-70.17764
112189453.125,-70.21701
112199218.75,-70.188416
112208984.375,-70.12505
112218750.0,-70.08978
112228515.625,-70.12842
112238281.25,-70.150116
112248046.875,-70.13843
112257812.5,-70.07133
112267578.125,-70.09523
112277343.75,-70.0725
112287109.375,-70.08286
112296875.0,-70.063774
112306640.625,-70.071625
112316406.25,-70.072296
112326171.875,-70.08716
112335937.5,-70.09518
112345703.125,-70.08009
112355468.75,-70.04029
112365234.375,-70.071884
112375000.0,-70.0993
112384765.625,-70.06725
112394531.25,-70.05091
112404296.875,-70.03912
112414062.5,-70.010185
112423828.125,-69.99762
112433593.75,-70.05235
112443359.375,-70.05415
112453125.0,-69.96968
112462890.625,-69.9973
112472656.25,-69.976234
112482421.875,-69.970825
112492187.5,-70.04088
112501953.125,-70.033936
112511718.75,-69.97863
112521484.375,-69.915115
112531250.0,-69.96492
112541015.625,-69.988014
112550781.25,-69.93545
112560546.875,-69.90906
112570312.5,-69.98882
112580078.125,-69.93555
112589843.75,-69.90705
112599609.375,-69.912445
112609375.0,-69.86075
112619140.625,-69.85942
112628906.25,-69.83087
112638671.875,-69.82138
112648437.5,-69.84046
112658203.125,-69.823746
112667968.75,-69.81787
112677734.375,-69.854294
112687500.0,-69.85961
112697265.625,-69.77964
112707031.25,-69.76136
112716796.875,-69.77359
112726562.5,-69.79516
112736328.125,-69.862854
112746093.75,-69.87974
112755859.375,-69.85087
112765625.0,-69.88977
112775390.625,-69.8237
112785156.25,-69.80254
112794921.875,-69.78521
112804687.5,-69.804245
112814453.125,-69.829155
112824218.75,-69.88682
112833984.375,-69.86997
112843750.0,-69.89222
112853515.625,-69.88916
112863281.25,-69.92402
112873046.875,-69.87346
112882812.5,-69.88783
112892578.125,-69.90567
112902343.75,-69.892
112912109.375,-69.87197
112921875.0,-69.93586
112931640.625,-69.94269
112941406.25,-69.97737
112951171.875,-69.94674
112960937.5,-70.01092
112970703.125,-70.0395
112980468.75,-70.02498
112990234.375,-69.97214
113000000.0,-69.97951
113009765.625,-69.99892
113019531.25,-70.04344
113029296.875,-70.03972
113039062.5,-69.99135
113048828.125,-70.025894
113058593.75,-70.06599
113068359.375,-70.091
113078125.0,-70.10987
113087890.625,-70.14483
113097656.25,-70.0894
113107421.875,-70.04715
113117187.5,-70.048836
113126953.125,-70.08788
113136718.75,-70.084656
113146484.375,-70.08353
113156250.0,-70.1053
113166015.625,-70.17749
113175781.25,-70.13931
113185546.875,-70.06601
113195312.5,-70.10626
113205078.125,-70.11055
113214843.75,-70.064995
113224609.375,-70.13393
113234375.0,-70.1469
113244140.625,-70.10675
113253906.25,-70.12033
113263671.875,-70.12453
113273437.5,-70.14354
113283203.125,-70.093575
113292968.75,-70.0852
113302734.375,-70.12086
113312500.0,-70.11712
113322265.625,-70.127556
113332031.25,-70.15759
113341796.875,-70.160255
113351562.5,-70.15451
113361328.125,-70.127014
113371093.75,-70.137054
113380859.375,-70.13536
113390625.0,-70.10729
113400390.625,-70.17547
113410156.25,-70.204666
113419921.875,-70.18223
113429687.5,-70.15081
113439453.125,-70.18626
113449218.75,-70.14258
113458984.375,-70.12904
113468750.0,-70.16584
113478515.625,-70.17752
113488281.25,-70.19549
113498046.875,-70.19683
113507812.5,-70.158676
113517578.125,-70.180984
113527343.75,-70.164246
113537109.375,-70.14034
113546875.0,-70.17024
113556640.625,-70.15629
113566406.25,-70.17703
113576171.875,-70.17999
113585937.5,-70.161224
113595703.125,-70.157684
113605468.75,-70.11854
113615234.375,-70.13292
113625000.0,-70.21678
113634765.625,-70.17762
113644531.25,-70.15504
113654296.875,-70.1745
113664062.5,-70.17991
113673828.125,-70.20986
113683593.75,-70.21311
113693359.375,-70.2064
113703125.0,-70.16525
113712890.625,-70.182175
113722656.25,-70.182755
113732421.875,-70.19357
113742187.5,-70.1799
113751953.125,-70.16068
113761718.75,-70.18478
113771484.375,-70.20647
113781250.0,-70.17712
113791015.625,-70.183685
113800781.25,-70.1314
113810546.875,-70.11923
113820312.5,-70.18727
113830078.125,-70.217316
113839843.75,-69.98918
113849609.375,-69.763405
113859375.0,-69.95044
113869140.625,-70.117714
113878906.25,-70.19859
113888671.875,-70.22034
113898437.5,-70.23604
113908203.125,-70.21114
113917968.75,-70.15915
113927734.375,-70.16354
113937500.0,-70.19679
113947265.625,-70.20575
113957031.25,-70.19687
113966796.875,-70.250854
113976562.5,-70.22447
113986328.125,-70.22498
113996093.75,-70.20461
114005859.375,-70.20929
114015625.0,-70.18764
114025390.625,-70.20568
114035156.25,-70.25296
114044921.875,-70.18834
114054687.5,-70.21296
114064453.125,-70.23345
114074218.75,-70.19377
114083984.375,-70.161316
114093750.0,-70.19693
114103515.625,-70.19333
114113281.25,-70.133896
114123046.875,-70.17229
114132812.5,-70.18919
114142578.125,-70.1749
114152343.75,-70.18373
114162109.375,-70.213005
114171875.0,-70.17358
114181640.625,-70.115715
114191406.25,-70.147255
114201171.875,-70.19572
114210937.5,-70.16264
114220703.125,-70.129074
114230468.75,-70.18409
114240234.375,-70.195915
114250000.0,-70.18245
114259765.625,-70.143585
114269531.25,-70.18935
114279296.875,-70.21949
114289062.5,-70.1779
114298828.125,-70.17571
114308593.75,-70.11672
114318359.375,-70.158066
114328125.0,-70.2098
114337890.625,-70.2282
114347656.25,-70.21991
114357421.875,-70.18347
114367187.5,-70.12164
114376953.125,-70.16542
114386718.75,-70.16283
114396484.375,-70.19869
114406250.0,-70.193436
114416015.625,-70.19263
114425781.25,-70.174965
114435546.875,-70.2059
114445312.5,-70.202415
114455078.125,-70.1825
114464843.75,-70.14388
114474609.375,-70.12376
114484375.0,-70.12393
114494140.625,-70.15422
114503906.25,-70.20401
114513671.875,-70.22324
114523437.5,-70.28094
114533203.125,-70.21012
114542968.75,-70.17864
114552734.375,-70.15678
114562500.0,-70.13132
114572265.625,-70.17855
114582031.25,-70.19723
114591796.875,-70.25409
114601562.5,-70.223495
114611328.125,-70.21375
114621093.75,-70.16497
114630859.375,-70.12537
114640625.0,-70.13189
114650390.625,-70.206314
114660156.25,-70.19811
114669921.875,-70.165955
114679687.5,-70.21165
114689453.125,-70.20379
114699218.75,-70.21163
114708984.375,-70.24708
114718750.0,-70.249115
114728515.625,-70.218956
114738281.25,-70.19545
114748046.875,-70.1386
114757812.5,-70.181305
114767578.125,-70.19914
114777343.75,-70.211784
114787109.375,-70.25402
114796875.0,-70.23367
114806640.625,-70.19794
114816406.25,-70.16903
114826171.875,-70.18729
114835937.5,-70.30437
114845703.125,-70.2169
114855468.75,-70.20966
114865234.375,-70.188644
114875000.0,-70.1988
114884765.625,-70.21552
114894531.25,-70.23045
114904296.875,-70.25511
114914062.5,-70.212585
114923828.125,-70.17036
114933593.75,-70.246056
114943359.375,-70.22552
114953125.0,-70.22101
114962890.625,-70.2078
114972656.25,-70.20972
114982421.875,-70.207275
114992187.5,-70.15934
115001953.125,-70.20103
115011718.75,-70.154335
115021484.375,-70.13418
115031250.0,-70.174355
115041015.625,-70.16204
115050781.25,-70.19397
115060546.875,-70.236145
115070312.5,-70.242096
115080078.125,-70.17266
115089843.75,-70.18142
115099609.375,-70.183044
115109375.0,-70.15024
115119140.625,-70.19183
115128906.25,-70.23229
115138671.875,-70.228065
115148437.5,-70.24035
115158203.125,-70.21512
115167968.75,-70.19303
115177734.375,-70.205444
115187500.0,-70.20209
115197265.625,-70.200195
115207031.25,-70.178055
115216796.875,-70.20177
115226562.5,-70.238174
115236328.125,-70.278595
115246093.75,-70.26061
115255859.375,-70.211105
115265625.0,-70.27889
115275390.625,-70.26998
115285156.25,-70.244385
115294921.875,-70.23401
115304687.5,-70.23326
115314453.125,-70.24674
115324218.75,-70.227104
115333984.375,-70.17237
115343750.0,-70.1922
115353515.625,-70.21755
115363281.25,-70.23954
115373046.875,-70.23526
115382812.5,-70.204636
115392578.125,-70.17083
115402343.75,-70.202225
115412109.375,-70.226685
115421875.0,-70.23781
115431640.625,-70.193474
115441406.25,-70.18422
115451171.875,-70.22638
115460937.5,-70.18111
115470703.125,-70.17009
115480468.75,-70.19832
115490234.375,-70.18515
115500000.0,-70.18411
115509765.625,-70.19587
115519531.25,-70.20291
115529296.875,-70.163055
115539062.5,-70.17467
115548828.125,-70.219604
115558593.75,-70.24158
115568359.375,-70.253586
115578125.0,-70.22076
115587890.625,-70.18726
115597656.25,-70.22113
115607421.875,-70.21277
115617187.5,-70.181656
115626953.125,-70.17417
115636718.75,-70.28673
115646484.375,-70.31727
115656250.0,-70.23932
115666015.625,-70.220825
115675781.25,-70.24371
115685546.875,-70.214836
115695312.5,-70.1826
115705078.125,-70.22981
115714843.75,-70.268
115724609.375,-70.26148
115734375.0,-70.27398
115744140.625,-70.25115
115753906.25,-70.23887
115763671.875,-70.21266
115773437.5,-70.191734
115783203.125,-70.198685
115792968.75,-70.18222
115802734.375,-70.228
115812500.0,-70.26401
115822265.625,-70.216995
115832031.25,-70.19086
115841796.875,-70.21025
115851562.5,-70.2132
115861328.125,-70.20064
115871093.75,-70.195595
115880859.375,-70.24769
115890625.0,-70.26711
115900390.625,-70.25783
115910156.25,-70.2362
115919921.875,-70.21727
115929687.5,-70.20236
115939453.125,-70.21438
115949218.75,-70.19138
115958984.375,-70.196915
115968750.0,-70.23928
115978515.625,-70.2115
